Cooling Curve : Zero Field:p/k=6:Log(To) = 7.5:[Fe/H] = -1.5											

log(T)	ne	nH	nt	log(lambda net)	log(lambda norm)	log(U)	log(taucool)	P12	rho24	Ci	mubar

7.500	0.0339	0.0300	0.0319	-25.88	-22.91	-9.366	14.73	289.2	0.072	674.8	0.966
7.444	0.0407	0.0361	0.0384	-25.74	-22.93	-9.342	14.69	303.4	0.076	630.2	0.966
7.395	0.0472	0.0418	0.0444	-25.63	-22.95	-9.327	14.66	314.4	0.088	596.1	0.966
7.346	0.0544	0.0482	0.0513	-25.53	-22.97	-9.314	14.64	323.6	0.102	563.1	0.966
7.296	0.0625	0.0554	0.0589	-25.42	-22.99	-9.304	14.60	331.4	0.117	531.5	0.966
7.245	0.0717	0.0635	0.0675	-25.32	-23.01	-9.295	14.57	338.0	0.134	501.4	0.966
7.194	0.0820	0.0726	0.0773	-25.22	-23.02	-9.288	14.53	343.8	0.154	472.7	0.966
7.142	0.0937	0.0830	0.0883	-25.12	-23.04	-9.282	14.50	348.8	0.176	445.4	0.966
7.091	0.1069	0.0946	0.1007	-25.02	-23.05	-9.276	14.46	353.1	0.201	419.6	0.966
7.038	0.1218	0.1079	0.1148	-24.92	-23.07	-9.272	14.42	356.8	0.228	395.2	0.966
6.986	0.1386	0.1228	0.1307	-24.83	-23.08	-9.268	14.39	360.1	0.260	372.0	0.966
6.934	0.1577	0.1397	0.1486	-24.73	-23.10	-9.264	14.35	362.9	0.296	350.2	0.966
6.881	0.1793	0.1588	0.1690	-24.63	-23.11	-9.261	14.31	365.4	0.336	329.6	0.966
6.828	0.2037	0.1804	0.1920	-24.53	-23.13	-9.258	14.27	367.6	0.382	310.1	0.966
6.775	0.2313	0.2048	0.2180	-24.44	-23.14	-9.256	14.23	369.5	0.434	291.8	0.966
6.722	0.2625	0.2325	0.2474	-24.34	-23.15	-9.254	14.19	371.2	0.493	274.5	0.966
6.669	0.2979	0.2638	0.2807	-24.23	-23.15	-9.252	14.14	372.6	0.559	258.2	0.966
6.616	0.3379	0.2993	0.3185	-24.13	-23.16	-9.251	14.09	373.9	0.634	242.9	0.966
6.562	0.3831	0.3394	0.3611	-24.02	-23.16	-9.250	14.04	375.1	0.719	228.4	0.966
6.509	0.4343	0.3847	0.4094	-23.91	-23.16	-9.249	13.99	376.1	0.815	214.8	0.966
6.456	0.4923	0.4361	0.4640	-23.79	-23.15	-9.247	13.92	377.0	0.924	202.0	0.966
6.402	0.5579	0.4942	0.5259	-23.67	-23.14	-9.247	13.86	377.7	1.047	189.9	0.966
6.349	0.6321	0.5600	0.5959	-23.53	-23.11	-9.246	13.77	378.4	1.186	178.6	0.966
6.295	0.7161	0.6344	0.6751	-23.38	-23.06	-9.245	13.68	379.0	1.344	167.9	0.966
6.242	0.8112	0.7186	0.7647	-23.23	-23.02	-9.244	13.58	379.6	1.522	157.9	0.966
6.188	0.9188	0.8139	0.8661	-23.11	-23.01	-9.244	13.51	380.0	1.724	148.4	0.966
6.135	1.041	0.9218	0.9809	-23.00	-23.01	-9.243	13.46	380.4	1.953	139.6	0.966
6.081	1.178	1.044	1.111	-22.89	-23.01	-9.243	13.40	380.8	2.212	131.2	0.966
6.027	1.334	1.182	1.258	-22.78	-23.00	-9.243	13.35	381.1	2.504	123.4	0.966
5.974	1.511	1.338	1.424	-22.64	-22.97	-9.242	13.26	381.4	2.836	116.0	0.966
5.920	1.711	1.515	1.613	-22.50	-22.94	-9.242	13.18	381.7	3.211	109.0	0.966
5.866	1.937	1.716	1.826	-22.32	-22.87	-9.242	13.05	381.9	3.635	102.5	0.966
5.813	2.192	1.942	2.067	-22.10	-22.76	-9.242	12.89	382.1	4.115	96.36	0.966
5.759	2.481	2.198	2.339	-21.91	-22.67	-9.242	12.75	382.2	4.657	90.59	0.966
5.706	2.808	2.488	2.648	-21.77	-22.64	-9.241	12.66	382.4	5.272	85.17	0.966
5.652	3.179	2.817	2.997	-21.65	-22.63	-9.241	12.60	382.5	5.968	80.06	0.966
5.598	3.599	3.188	3.393	-21.51	-22.60	-9.241	12.51	382.6	6.755	75.26	0.966
5.544	4.073	3.609	3.840	-21.31	-22.50	-9.241	12.36	382.7	7.646	70.75	0.966
5.491	4.606	4.081	4.343	-21.05	-22.35	-9.241	12.16	382.8	8.647	66.54	0.966
5.438	5.208	4.615	4.911	-20.79	-22.20	-9.241	11.95	382.9	9.778	62.58	0.966
5.384	5.894	5.223	5.558	-20.59	-22.10	-9.241	11.81	383.0	11.07	58.83	0.966
5.330	6.671	5.912	6.291	-20.43	-22.05	-9.241	11.70	383.0	12.52	55.30	0.966
5.277	7.549	6.691	7.120	-20.30	-22.03	-9.240	11.62	383.1	14.18	51.98	0.966
5.223	8.543	7.572	8.058	-20.20	-22.04	-9.241	11.58	383.1	16.04	48.87	0.966
5.169	9.666	8.570	9.119	-20.10	-22.04	-9.241	11.53	383.1	18.16	45.93	0.967
5.116	10.93	9.699	10.32	-20.01	-22.06	-9.240	11.49	383.0	20.55	43.17	0.967
5.062	12.37	10.98	11.68	-19.92	-22.08	-9.241	11.46	382.9	23.25	40.58	0.967
5.008	13.98	12.42	13.22	-19.85	-22.12	-9.241	11.44	382.7	26.32	38.13	0.968
4.955	15.78	14.04	14.94	-19.79	-22.16	-9.241	11.43	382.4	29.75	35.85	0.969
4.902	17.78	15.86	16.88	-19.74	-22.22	-9.242	11.44	382.0	33.61	33.71	0.970
4.849	20.04	17.93	19.08	-19.69	-22.28	-9.242	11.44	381.5	37.99	31.69	0.971
4.795	22.60	20.29	21.59	-19.65	-22.34	-9.244	11.45	380.8	42.99	29.76	0.973
4.742	25.47	22.96	24.44	-19.60	-22.39	-9.244	11.45	380.0	48.65	27.95	0.975
4.688	28.70	25.99	27.65	-19.54	-22.44	-9.245	11.44	379.2	55.06	26.24	0.977
4.635	32.28	29.33	31.21	-19.47	-22.47	-9.246	11.42	378.6	62.13	24.68	0.979
4.588	35.92	32.73	34.83	-19.38	-22.48	-9.246	11.38	378.0	69.34	23.35	0.980
4.544	39.61	36.18	38.50	-19.29	-22.47	-9.247	11.33	377.5	76.66	22.19	0.981
4.486	45.15	41.41	44.07	-19.14	-22.44	-9.247	11.24	376.8	87.74	20.72	0.983
4.435	50.56	46.56	49.55	-19.02	-22.42	-9.248	11.17	376.0	98.65	19.52	0.985
4.390	55.74	51.56	54.87	-18.93	-22.42	-9.250	11.12	375.1	109.2	18.53	0.988
4.339	62.27	58.02	61.74	-18.88	-22.46	-9.251	11.12	373.8	122.9	17.44	0.991
4.295	68.41	64.29	68.42	-18.86	-22.53	-9.253	11.14	372.2	136.2	16.53	0.996
4.246	75.55	71.95	76.56	-18.89	-22.65	-9.256	11.21	369.8	152.4	15.58	1.002
4.203	82.09	79.45	84.55	-18.95	-22.79	-9.259	11.31	366.8	168.3	14.76	1.010
4.157	88.98	88.30	93.96	-19.04	-22.96	-9.265	11.44	362.4	187.1	13.92	1.023
4.116	94.64	96.98	103.2	-19.14	-23.13	-9.272	11.56	356.8	205.5	13.18	1.038
4.074	99.34	106.9	113.8	-19.27	-23.33	-9.281	11.71	348.6	226.5	12.41	1.063
4.031	101.8	117.9	125.5	-19.42	-23.53	-9.296	11.87	337.1	249.8	11.62	1.099