Cooling Curve : Zero Field:p/k=6:Log(To) = 7.5:[Fe/H] = -3.0											

log(T)	ne	nH	nt	log(lambda net)	log(lambda norm)	log(U)	log(taucool)	P12	rho24	Ci	mubar

7.500	0.0338	0.0300	0.0319	-25.89	-22.92	-9.366	14.74	289.1	0.072	674.9	0.965
7.444	0.0407	0.0361	0.0384	-25.75	-22.95	-9.342	14.70	303.3	0.076	630.5	0.965
7.395	0.0471	0.0418	0.0444	-25.65	-22.97	-9.327	14.68	314.2	0.088	596.3	0.965
7.346	0.0543	0.0482	0.0513	-25.54	-22.99	-9.314	14.65	323.4	0.102	563.4	0.965
7.296	0.0625	0.0554	0.0589	-25.44	-23.01	-9.304	14.62	331.2	0.117	531.8	0.965
7.245	0.0716	0.0635	0.0675	-25.34	-23.03	-9.296	14.59	337.9	0.134	501.6	0.965
7.194	0.0819	0.0726	0.0773	-25.25	-23.05	-9.288	14.56	343.6	0.154	472.9	0.965
7.142	0.0936	0.0830	0.0883	-25.15	-23.07	-9.282	14.53	348.6	0.176	445.6	0.965
7.091	0.1068	0.0947	0.1007	-25.06	-23.09	-9.276	14.50	352.9	0.200	419.8	0.965
7.038	0.1217	0.1079	0.1148	-24.96	-23.11	-9.272	14.46	356.6	0.228	395.3	0.965
6.986	0.1385	0.1228	0.1307	-24.87	-23.13	-9.268	14.43	359.9	0.260	372.2	0.965
6.933	0.1576	0.1397	0.1486	-24.78	-23.15	-9.265	14.40	362.7	0.296	350.4	0.965
6.881	0.1791	0.1588	0.1690	-24.68	-23.16	-9.261	14.36	365.2	0.336	329.7	0.965
6.828	0.2035	0.1804	0.1920	-24.59	-23.18	-9.259	14.33	367.4	0.382	310.3	0.965
6.775	0.2311	0.2049	0.2180	-24.50	-23.20	-9.256	14.29	369.3	0.433	291.9	0.965
6.722	0.2623	0.2326	0.2474	-24.40	-23.22	-9.255	14.25	371.0	0.492	274.6	0.965
6.669	0.2977	0.2639	0.2808	-24.31	-23.23	-9.253	14.22	372.5	0.558	258.3	0.965
6.616	0.3376	0.2993	0.3185	-24.22	-23.25	-9.251	14.18	373.8	0.633	243.0	0.965
6.562	0.3829	0.3394	0.3611	-24.12	-23.26	-9.250	14.14	374.9	0.718	228.5	0.965
6.509	0.4341	0.3848	0.4094	-24.03	-23.28	-9.249	14.10	375.9	0.814	214.9	0.965
6.456	0.4920	0.4362	0.4641	-23.93	-23.29	-9.247	14.06	376.8	0.923	202.1	0.965
6.402	0.5576	0.4943	0.5259	-23.83	-23.30	-9.247	14.02	377.6	1.046	190.0	0.965
6.349	0.6318	0.5601	0.5959	-23.73	-23.31	-9.246	13.97	378.3	1.185	178.7	0.965
6.295	0.7157	0.6345	0.6751	-23.62	-23.31	-9.246	13.92	378.9	1.342	168.0	0.965
6.242	0.8108	0.7187	0.7647	-23.52	-23.31	-9.244	13.87	379.4	1.520	158.0	0.965
6.188	0.9183	0.8141	0.8662	-23.41	-23.31	-9.244	13.81	379.9	1.722	148.5	0.965
6.134	1.040	0.9220	0.9810	-23.31	-23.32	-9.244	13.77	380.3	1.950	139.6	0.965
6.081	1.178	1.044	1.111	-23.20	-23.32	-9.243	13.71	380.6	2.209	131.3	0.965
6.027	1.334	1.182	1.258	-23.10	-23.32	-9.243	13.67	381.0	2.501	123.4	0.965
5.974	1.510	1.339	1.424	-22.99	-23.32	-9.242	13.61	381.3	2.832	116.0	0.965
5.920	1.710	1.516	1.613	-22.87	-23.31	-9.242	13.55	381.5	3.206	109.1	0.965
5.866	1.936	1.716	1.826	-22.75	-23.30	-9.242	13.48	381.7	3.630	102.5	0.965
5.813	2.191	1.943	2.067	-22.62	-23.28	-9.242	13.41	381.9	4.109	96.41	0.965
5.759	2.481	2.199	2.340	-22.49	-23.25	-9.242	13.33	382.1	4.652	90.63	0.965
5.705	2.808	2.490	2.649	-22.36	-23.23	-9.242	13.25	382.3	5.266	85.20	0.965
5.652	3.179	2.818	2.999	-22.23	-23.21	-9.241	13.18	382.4	5.961	80.09	0.965
5.598	3.599	3.190	3.394	-22.10	-23.18	-9.241	13.10	382.5	6.748	75.29	0.965
5.544	4.073	3.611	3.842	-21.95	-23.14	-9.241	13.00	382.6	7.638	70.77	0.965
5.490	4.611	4.087	4.349	-21.77	-23.08	-9.242	12.88	382.7	8.646	66.53	0.965
5.437	5.218	4.626	4.922	-21.58	-22.99	-9.241	12.74	382.8	9.786	62.54	0.965
5.383	5.906	5.236	5.571	-21.40	-22.92	-9.241	12.62	382.9	11.08	58.80	0.965
5.329	6.684	5.926	6.305	-21.24	-22.86	-9.241	12.51	382.9	12.53	55.27	0.965
5.276	7.564	6.707	7.136	-21.08	-22.81	-9.241	12.40	383.0	14.19	51.95	0.965
5.222	8.561	7.591	8.077	-20.91	-22.75	-9.241	12.29	383.0	16.06	48.84	0.965
5.168	9.687	8.592	9.142	-20.73	-22.68	-9.241	12.16	383.0	18.17	45.91	0.965
5.115	10.96	9.724	10.35	-20.54	-22.60	-9.240	12.03	382.9	20.57	43.15	0.965
5.061	12.38	11.00	11.70	-20.36	-22.52	-9.241	11.90	382.8	23.27	40.56	0.966
5.007	13.99	12.44	13.24	-20.22	-22.48	-9.242	11.81	382.5	26.32	38.12	0.967
4.955	15.75	14.05	14.95	-20.12	-22.49	-9.242	11.76	382.0	29.73	35.85	0.968
4.904	17.64	15.79	16.80	-20.07	-22.54	-9.243	11.76	381.3	33.40	33.79	0.970
4.854	19.71	17.73	18.86	-20.04	-22.61	-9.244	11.78	380.4	37.50	31.85	0.972
4.803	22.05	19.95	21.22	-20.03	-22.70	-9.245	11.82	379.3	42.20	29.98	0.975
4.750	24.76	22.54	23.98	-20.00	-22.77	-9.246	11.84	378.1	47.68	28.16	0.978
4.696	27.83	25.50	27.14	-19.92	-22.80	-9.248	11.81	376.8	53.94	26.43	0.982
4.642	31.32	28.86	30.70	-19.78	-22.77	-9.249	11.72	375.8	61.04	24.81	0.984
4.590	35.20	32.55	34.64	-19.62	-22.71	-9.250	11.61	375.2	68.86	23.34	0.986
4.543	39.13	36.30	38.62	-19.46	-22.63	-9.250	11.50	374.6	76.78	22.09	0.987
4.500	43.04	40.02	42.58	-19.30	-22.56	-9.251	11.38	374.1	84.65	21.02	0.989
4.445	48.65	45.42	48.32	-19.11	-22.48	-9.252	11.24	373.4	96.07	19.72	0.991
4.399	53.90	50.53	53.76	-19.00	-22.46	-9.253	11.18	372.6	106.9	18.67	0.993
4.359	58.85	55.44	58.99	-18.93	-22.47	-9.254	11.15	371.7	117.3	17.80	0.995
4.312	65.06	61.77	65.73	-18.89	-22.53	-9.255	11.15	370.3	130.7	16.83	0.999
4.271	70.88	67.94	72.28	-18.90	-22.61	-9.257	11.20	368.6	143.7	16.02	1.004
4.225	77.61	75.47	80.30	-18.94	-22.74	-9.260	11.28	365.9	159.6	15.14	1.011
4.184	83.68	82.87	88.17	-19.01	-22.88	-9.265	11.38	362.7	175.3	14.38	1.020
4.141	89.90	91.58	97.44	-19.12	-23.06	-9.270	11.52	357.8	193.7	13.59	1.034
4.096	95.34	101.5	108.0	-19.26	-23.27	-9.280	11.68	350.4	214.7	12.77	1.056
4.051	98.48	112.5	119.7	-19.43	-23.51	-9.294	11.87	339.2	238.0	11.94	1.091
4.008	97.33	124.4	132.4	-19.65	-23.76	-9.315	12.08	322.9	263.2	11.08	1.146